#GEFID= 1, 0, 0
#PROCEDURECODE = GEF-CPT-Report, 1,1,0, -
#FILEOWNER= Gemeentewerken Rotterdam
#FILEDATE= 2009, 1, 8
#TESTID = AZZ158
#PROJECTID= 2007-025
#REPORTTEXT= 201, werk: leidingenpassage yangtzehaven, -
#REPORTTEXT= 202, plaats: Rotterdam, -
#REPORTTEXT= 203, Sondering AZZ158, -
#MEASUREMENTTEXT= 4, CFP10-15I;050918, -
#MEASUREMENTTEXT= 6, NEN 5140 klasse:2, -
#MEASUREMENTTEXT= 22, Conustype: Cil.elec k
#MEASUREMENTTEXT= 23, Opmerking BM: GEEN
#COLUMN= 6
#COLUMNINFO= 1, m, sondeerlengte, 1
#COLUMNINFO= 2, MPa, Punt druk, 2
#COLUMNINFO= 3, Mpa, Lokale wrijving, 3
#COLUMNINFO= 4, Graden(deg), Helling, 8
#COLUMNINFO= 5, m, Gecorrigeerde diepte, 11
#COLUMNINFO= 6, s, tijd, 12
#LASTSCAN = 2980
#DATAFORMAT= ASCII
#OS= DOS
#LANGUAGE= NL
#COMPANYID= P.Dorsman, IGWR Rotterdam, 31
#MEASUREMENTTEXT = 9, Maaiveld
#ZID= 31000, 5.05
#XYID= 0, 0, 0
#STARTDATE= 2007, 10, 15
#EOH=
0.00 0.24 0.00 0.20 0.00 000040
0.02 0.32 0.00 0.00 0.02 000041
0.04 0.4 0.00 -0.30 0.04 000042
0.06 0.64 0.00 -0.30 0.06 000043
0.08 0.87 0.00 -0.30 0.08 000044
0.10 1.24 0.00 -0.10 0.10 000046
0.12 1.58 0.00 -0.10 0.12 000047
0.14 2.08 0.00 -0.30 0.14 000048
0.16 2.51 0.00 -0.30 0.16 000049
0.18 3.01 0.00 -0.10 0.18 000050
0.20 3.55 0.00 -0.30 0.20 000051
0.22 4.07 -0.001 -0.20 0.22 000053
0.24 4.48 0.00 -0.30 0.24 000054
0.26 4.4 0.001 -0.50 0.26 000055
0.28 4.02 0.007 -0.30 0.28 000056
0.30 3.83 0.011 -0.20 0.30 000057
0.32 4.09 0.014 -0.20 0.32 000058
0.34 5.08 0.021 -0.30 0.34 000059
0.36 5.95 0.019 -0.20 0.36 000069
0.38 6.74 0.028 -0.30 0.38 000070
0.40 7.06 0.03 -0.30 0.40 000071
0.42 7.17 0.031 -0.20 0.42 000072
0.44 7.16 0.034 -0.30 0.44 000073
0.46 7.13 0.035 -0.30 0.46 000074
0.48 6.82 0.036 -0.20 0.48 000075
0.50 6.37 0.036 -0.30 0.50 000076
0.52 5.91 0.038 -0.30 0.52 000077
0.54 5.37 0.045 -0.30 0.54 000078
0.56 4.82 0.045 -0.30 0.56 000079
0.58 3.98 0.053 -0.30 0.58 000079
0.60 3.65 0.055 -0.30 0.60 000080
0.62 3.25 0.07 -0.30 0.62 000081
0.64 3.65 0.079 -0.30 0.64 000082
0.66 4.15 0.08 -0.30 0.66 000083
0.68 4.65 0.081 -0.30 0.68 000084
0.70 5.13 0.08 -0.30 0.70 000085
0.72 5.28 0.077 -0.30 0.72 000086
0.74 5.45 0.074 -0.30 0.74 000087
0.76 5.78 0.067 -0.30 0.76 000087
0.78 6 0.067 -0.30 0.78 000088
0.80 6.22 0.06 -0.30 0.80 000089
0.82 6.27 0.058 -0.10 0.82 000090
0.84 6.2 0.055 -0.10 0.84 000091
0.86 6.06 0.049 -0.10 0.86 000092
0.88 5.9 0.047 -0.10 0.88 000093
0.90 5.76 0.047 -0.10 0.90 000094
0.92 5.57 0.046 -0.10 0.92 000094
0.94 5.37 0.047 -0.10 0.94 000095
0.96 5.12 0.046 -0.10 0.96 000096
0.98 4.95 0.044 -0.10 0.98 000097
1.00 4.67 0.042 -0.10 1.00 000098
1.02 4.49 0.041 -0.10 1.02 000099
1.04 4.35 0.039 -0.10 1.04 000100
1.06 4.18 0.036 -0.10 1.06 000101
1.08 4.04 0.035 -0.10 1.08 000101
1.10 3.92 0.034 -0.10 1.10 000102
1.12 3.81 0.032 -0.10 1.12 000103
1.14 3.71 0.031 -0.10 1.14 000104
1.16 3.61 0.031 -0.10 1.16 000105
1.18 3.51 0.031 -0.10 1.18 000106
1.20 3.43 0.03 -0.10 1.20 000107
1.22 3.32 0.029 -0.10 1.22 000108
1.24 3.23 0.028 -0.10 1.24 000109
1.26 3.17 0.029 -0.10 1.26 000109
1.28 3.12 0.029 -0.10 1.28 000110
1.30 3.1 0.031 -0.10 1.30 000111
1.32 3.5 0.0305 -0.10 1.32 000112
1.34 3.97 0.0308 -0.10 1.34 000121
1.36 4.44 0.031 -0.10 1.36 000122
1.38 4.93 0.032 -0.10 1.38 000123
1.40 5.29 0.032 -0.10 1.40 000124
1.42 5.82 0.033 -0.10 1.42 000125
1.44 6.26 0.032 -0.10 1.44 000126
1.46 6.75 0.029 -0.10 1.46 000126
1.48 7.14 0.028 -0.10 1.48 000127
1.50 7.66 0.026 -0.10 1.50 000128
1.52 8.37 0.026 -0.10 1.52 000129
1.54 9.22 0.026 -0.10 1.54 000130
1.56 10.15 0.029 -0.10 1.56 000131
1.58 11.13 0.033 -0.10 1.58 000132
1.60 12.33 0.035 -0.10 1.60 000133
1.62 13.27 0.037 -0.10 1.62 000134
1.64 13.97 0.041 -0.10 1.64 000134
1.66 14.47 0.047 -0.10 1.66 000135
1.68 14.7 0.055 -0.10 1.68 000136
1.70 14.66 0.061 -0.10 1.70 000137
1.72 14.59 0.065 -0.10 1.72 000138
1.74 14.62 0.069 -0.10 1.74 000139
1.76 14.91 0.075 -0.10 1.76 000140
1.78 15.44 0.079 -0.10 1.78 000141
1.80 16.31 0.081 -0.10 1.80 000142
1.82 17.72 0.081 -0.10 1.82 000143
1.84 19.32 0.08 -0.10 1.84 000143
1.86 20.09 0.081 -0.10 1.86 000144
1.88 20.63 0.082 -0.10 1.88 000145
1.90 21.12 0.085 -0.10 1.90 000146
1.92 21.69 0.088 -0.10 1.92 000147
1.94 22.42 0.091 -0.10 1.94 000148
1.96 23.12 0.095 -0.10 1.96 000149
1.98 23.46 0.10 -0.10 1.98 000150
2.00 23.3 0.104 -0.10 2.00 000151
2.02 22.88 0.109 -0.10 2.02 000152
2.04 22.46 0.112 -0.10 2.04 000153
2.06 21.9 0.12 -0.10 2.06 000153
2.08 21.37 0.124 -0.10 2.08 000154
2.10 20.37 0.131 -0.10 2.10 000155
2.12 19.74 0.135 -0.10 2.12 000156
2.14 19.3 0.137 -0.10 2.14 000157
2.16 19.5 0.137 -0.10 2.16 000158
2.18 19.41 0.137 -0.10 2.18 000159
2.20 18.84 0.141 -0.10 2.20 000160
2.22 18.05 0.143 -0.10 2.22 000161
2.24 17.68 0.139 -0.10 2.24 000162
2.26 17.36 0.135 -0.10 2.26 000162
2.28 17.18 0.133 -0.10 2.28 000163
2.30 17 0.125 -0.10 2.30 000173
2.32 16.81 0.117 -0.10 2.32 000174
2.34 17.05 0.116 -0.10 2.34 000174
2.36 17 0.113 -0.10 2.36 000175
2.38 16.9 0.108 -0.10 2.38 000176
2.40 16.89 0.11 -0.10 2.40 000177
2.42 16.9 0.112 -0.10 2.42 000178
2.44 16.92 0.11 -0.10 2.44 000179
2.46 16.95 0.1075 -0.10 2.46 000180
2.48 16.98 0.1058 -0.10 2.48 000181
2.50 17.04 0.1044 -0.10 2.50 000182
2.52 17.11 0.103 -0.10 2.52 000183
2.54 17.18 0.10 -0.10 2.54 000184
2.56 17.26 0.102 -0.10 2.56 000184
2.58 16.97 0.1073 -0.10 2.58 000185
2.60 15.85 0.1141 -0.10 2.60 000186
2.62 14.73 0.1211 -0.10 2.62 000187
2.64 13.78 0.1283 -0.10 2.64 000188
2.66 13.56 0.1356 -0.10 2.66 000189
2.68 14.19 0.143 -0.10 2.68 000190
2.70 14.81 0.147 -0.10 2.70 000191
2.72 16.74 0.144 -0.10 2.72 000192
2.74 18.67 0.136 -0.10 2.74 000193
2.76 20.07 0.1204 -0.10 2.76 000194
2.78 20.74 0.1076 -0.10 2.78 000194
2.80 21.08 0.099 -0.10 2.80 000195
2.82 21.28 0.0949 -0.10 2.82 000196
2.84 21.49 0.0939 -0.10 2.84 000197
2.86 21.69 0.0944 -0.10 2.86 000198
2.88 21.9 0.095 -0.10 2.88 000199
2.90 22.1 0.097 -0.10 2.90 000200
2.92 22.3 0.096 -0.10 2.92 000201
2.94 22.49 0.097 -0.10 2.94 000202
2.96 22.32 0.099 -0.10 2.96 000203
2.98 21.66 0.102 -0.10 2.98 000204
3.00 20.58 0.107 -0.10 3.00 000204
3.02 19.81 0.113 -0.10 3.02 000205
3.04 18.77 0.119 -0.10 3.04 000206
3.06 18.12 0.121 -0.10 3.06 000207
3.08 17.67 0.123 -0.10 3.08 000208
3.10 17.59 0.125 -0.10 3.10 000209
3.12 17.78 0.125 -0.10 3.12 000210
3.14 18.29 0.125 -0.10 3.14 000211
3.16 19.08 0.125 -0.10 3.16 000212
3.18 19.47 0.12 -0.10 3.18 000213
3.20 19.76 0.1175 -0.10 3.20 000213
3.22 20.1 0.1163 -0.10 3.22 000214
3.24 20.43 0.1156 0.10 3.24 000215
3.26 20.68 0.115 -0.10 3.26 000216
3.28 20.76 0.11 -0.10 3.28 000225
3.30 20.83 0.11 0.10 3.30 000226
3.32 20.91 0.111 0.10 3.32 000227
3.34 20.75 0.112 0.10 3.34 000228
3.36 20.21 0.1085 0.10 3.36 000229
3.38 19.62 0.1063 0.10 3.38 000230
3.40 19.03 0.104 0.10 3.40 000231
3.42 18.57 0.1005 0.10 3.42 000232
3.44 18.29 0.0973 0.10 3.44 000233
3.46 18.01 0.094 0.10 3.46 000234
3.48 18.23 0.092 0.10 3.48 000235
3.50 18.71 0.092 0.10 3.50 000235
3.52 19.06 0.092 0.10 3.52 000236
3.54 19.6 0.10 0.10 3.54 000237
3.56 19.91 0.104 0.10 3.56 000238
3.58 19.97 0.104 0.10 3.58 000239
3.60 19.99 0.103 0.10 3.60 000240
3.62 19.93 0.102 0.10 3.62 000241
3.64 19.97 0.102 0.10 3.64 000242
3.66 19.92 0.102 0.10 3.66 000243
3.68 19.88 0.102 0.10 3.68 000244
3.70 19.85 0.10 0.10 3.70 000245
3.72 19.71 0.096 0.10 3.72 000245
3.74 19.78 0.094 0.10 3.74 000246
3.76 19.67 0.089 0.10 3.76 000247
3.78 19.37 0.085 0.10 3.78 000248
3.80 19.1 0.077 0.10 3.80 000249
3.82 19.03 0.072 0.10 3.82 000250
3.84 18.75 0.064 0.20 3.84 000251
3.86 18.36 0.059 0.20 3.86 000252
3.88 17.88 0.056 0.10 3.88 000253
3.90 17.5 0.056 0.30 3.90 000254
3.92 16.7 0.058 0.30 3.92 000254
3.94 16.13 0.059 0.30 3.94 000255
3.96 15.79 0.059 0.30 3.96 000256
3.98 16.01 0.061 0.30 3.98 000257
4.00 16.99 0.063 0.30 4.00 000258
4.02 17.94 0.062 0.30 4.02 000259
4.04 18.63 0.058 0.30 4.04 000260
4.06 18.86 0.052 0.30 4.06 000261
4.08 18.98 0.053 0.30 4.08 000262
4.10 18.88 0.051 0.30 4.10 000263
4.12 18.57 0.046 0.30 4.12 000263
4.14 18.54 0.042 0.30 4.14 000264
4.16 18.58 0.041 0.30 4.16 000265
4.18 18.63 0.043 0.30 4.18 000266
4.20 18.43 0.047 0.30 4.20 000267
4.22 18.13 0.051 0.30 4.22 000268
4.24 17.83 0.058 0.30 4.24 000269
4.26 17.83 0.059 0.30 4.26 000278
4.28 17.83 0.06 0.30 4.28 000279
4.30 18.05 0.065 0.50 4.30 000280
4.32 18.14 0.071 0.50 4.32 000281
4.34 18.14 0.076 0.50 4.34 000282
4.36 17.99 0.081 0.50 4.36 000283
4.38 17.84 0.083 0.50 4.38 000284
4.40 17.53 0.085 0.50 4.40 000284
4.42 17.25 0.088 0.50 4.42 000285
4.44 16.87 0.091 0.50 4.44 000286
4.46 16.7 0.092 0.50 4.46 000287
4.48 16.61 0.091 0.50 4.48 000288
4.50 16.55 0.092 0.50 4.50 000289
4.52 16.36 0.091 0.50 4.52 000290
4.54 16.21 0.09 0.50 4.54 000291
4.56 16.08 0.089 0.50 4.56 000292
4.58 15.88 0.089 0.50 4.58 000293
4.60 15.55 0.088 0.50 4.60 000293
4.62 15.27 0.087 0.50 4.62 000294
4.64 14.77 0.086 0.50 4.64 000295
4.66 14.28 0.085 0.50 4.66 000296
4.68 13.75 0.086 0.50 4.68 000297
4.70 13.47 0.086 0.50 4.70 000298
4.72 13.2 0.086 0.50 4.72 000299
4.74 13 0.085 0.50 4.74 000300
4.76 12.71 0.086 0.50 4.76 000301
4.78 12.47 0.086 0.50 4.78 000302
4.80 11.92 0.087 0.50 4.80 000302
4.82 11.38 0.088 0.50 4.82 000303
4.84 10.92 0.085 0.50 4.84 000304
4.86 10.52 0.085 0.50 4.86 000305
4.88 10.26 0.085 0.50 4.88 000306
4.90 9.95 0.086 0.50 4.90 000307
4.92 9.81 0.083 0.50 4.92 000308
4.94 9.83 0.082 0.50 4.94 000309
4.96 9.94 0.081 0.50 4.96 000310
4.98 9.99 0.078 0.50 4.98 000310
5.00 10.07 0.076 0.50 5.00 000311
5.02 10.08 0.073 0.50 5.02 000312
5.04 9.91 0.07 0.50 5.04 000313
5.06 9.67 0.067 0.50 5.06 000314
5.08 9.22 0.063 0.50 5.08 000315
5.10 8.88 0.062 0.50 5.10 000316
5.12 8.55 0.058 0.50 5.12 000317
5.14 8.55 0.056 0.50 5.14 000317
5.16 8.89 0.055 0.50 5.16 000318
5.18 9.14 0.055 0.50 5.18 000319
5.20 9.24 0.056 0.50 5.20 000320
5.22 8.91 0.055 0.50 5.22 000329
5.24 8.57 0.054 0.50 5.24 000330
5.26 8.75 0.061 0.50 5.26 000331
5.28 8.82 0.06 0.50 5.28 000332
5.30 8.8 0.057 0.50 5.30 000333
5.32 8.77 0.056 0.50 5.32 000334
5.34 8.8 0.054 0.50 5.34 000335
5.36 8.94 0.051 0.50 5.36 000336
5.38 9.05 0.047 0.50 5.38 000337
5.40 8.98 0.044 0.50 5.40 000337
5.42 8.77 0.045 0.50 5.42 000338
5.44 8.55 0.046 0.50 5.44 000339
5.46 8.37 0.046 0.50 5.46 000340
5.48 8.2 0.046 0.50 5.48 000341
5.50 8.14 0.046 0.50 5.50 000342
5.52 8.19 0.045 0.50 5.52 000343
5.54 8.13 0.042 0.50 5.54 000344
5.56 7.88 0.04 0.50 5.56 000345
5.58 7.62 0.038 0.50 5.58 000346
5.60 7.42 0.037 0.50 5.60 000347
5.62 7.34 0.038 0.50 5.62 000348
5.64 7.4 0.038 0.50 5.64 000349
5.66 7.53 0.038 0.50 5.66 000349
5.68 7.63 0.037 0.50 5.68 000350
5.70 7.29 0.037 0.50 5.70 000351
5.72 6.7 0.036 0.50 5.72 000352
5.74 6.35 0.037 0.50 5.74 000353
5.76 6.05 0.04 0.50 5.76 000354
5.78 5.89 0.041 0.50 5.78 000355
5.80 5.71 0.042 0.50 5.80 000356
5.82 5.44 0.045 0.50 5.82 000356
5.84 5.16 0.055 0.50 5.84 000357
5.86 5.03 0.06 0.50 5.86 000358
5.88 5.3 0.061 0.50 5.88 000359
5.90 5.83 0.063 0.50 5.90 000360
5.92 6.49 0.063 0.50 5.92 000361
5.94 6.85 0.059 0.50 5.94 000362
5.96 7.28 0.059 0.50 5.96 000363
5.98 7.51 0.053 0.50 5.98 000364
6.00 7.61 0.047 0.50 6.00 000364
6.02 7.58 0.045 0.50 6.02 000365
6.04 7.65 0.044 0.50 6.04 000366
6.06 7.79 0.042 0.50 6.06 000367
6.08 7.77 0.038 0.50 6.08 000368
6.10 7.65 0.04 0.50 6.10 000369
6.12 7.53 0.041 0.50 6.12 000370
6.14 7.38 0.039 0.50 6.14 000371
6.16 7.24 0.038 0.50 6.16 000371
6.18 6.93 0.0355 0.50 6.18 000381
6.20 6.62 0.033 0.50 6.20 000381
6.22 6.43 0.033 0.50 6.22 000382
6.24 6.15 0.033 0.50 6.24 000383
6.26 5.98 0.033 0.50 6.26 000384
6.28 5.75 0.035 0.50 6.28 000385
6.30 5.58 0.035 0.50 6.30 000386
6.32 5.47 0.035 0.50 6.32 000387
6.34 5.34 0.034 0.50 6.34 000388
6.36 5.27 0.033 0.50 6.36 000389
6.38 5.22 0.031 0.50 6.38 000389
6.40 5.16 0.025 0.40 6.40 000404
6.42 5.09 0.019 0.40 6.42 000405
6.44 5.06 0.019 0.40 6.44 000406
6.46 4.98 0.02 0.40 6.46 000407
6.48 4.82 0.021 0.40 6.48 000408
6.50 4.65 0.021 0.40 6.50 000408
6.52 4.57 0.021 0.40 6.52 000409
6.54 4.47 0.022 0.40 6.54 000410
6.56 4.35 0.023 0.40 6.56 000411
6.58 3.91 0.025 0.40 6.58 000412
6.60 3.62 0.025 0.40 6.60 000413
6.62 3.37 0.025 0.40 6.62 000414
6.64 3.09 0.032 0.40 6.64 000415
6.66 2.71 0.04 0.40 6.66 000416
6.68 2.95 0.044 0.40 6.68 000416
6.70 3.48 0.045 0.40 6.70 000417
6.72 4.22 0.04 0.40 6.72 000418
6.74 4.37 0.039 0.40 6.74 000419
6.76 4.45 0.037 0.40 6.76 000420
6.78 4.49 0.034 0.40 6.78 000421
6.80 4.59 0.032 0.40 6.80 000422
6.82 4.62 0.031 0.40 6.82 000423
6.84 4.63 0.029 0.40 6.84 000424
6.86 4.73 0.027 0.40 6.86 000424
6.88 4.89 0.025 0.40 6.88 000425
6.90 5.01 0.026 0.40 6.90 000426
6.92 5.03 0.028 0.40 6.92 000427
6.94 5.03 0.028 0.40 6.94 000428
6.96 5.07 0.028 0.40 6.96 000429
6.98 5.13 0.027 0.40 6.98 000430
7.00 5.19 0.026 0.40 7.00 000431
7.02 5.21 0.026 0.40 7.02 000432
7.04 5.21 0.026 0.40 7.04 000432
7.06 5.19 0.025 0.40 7.06 000433
7.08 5.19 0.024 0.40 7.08 000434
7.10 5.21 0.026 0.30 7.10 000435
7.12 5.2 0.028 0.40 7.12 000436
7.14 5.14 0.029 0.40 7.14 000437
7.16 5.08 0.03 0.40 7.16 000438
7.18 5.04 0.03 0.40 7.18 000439
7.20 5 0.031 0.40 7.20 000440
7.22 4.95 0.031 0.40 7.22 000440
7.24 4.89 0.031 0.40 7.24 000441
7.26 4.84 0.031 0.40 7.26 000442
7.28 4.79 0.03 0.40 7.28 000443
7.30 4.71 0.03 0.40 7.30 000444
7.32 4.64 0.029 0.40 7.32 000445
7.34 4.57 0.025 0.40 7.34 000454
7.36 4.5 0.021 0.30 7.36 000455
7.38 4.49 0.021 0.40 7.38 000456
7.40 4.42 0.02 0.40 7.40 000457
7.42 4.31 0.02 0.30 7.42 000457
7.44 4.16 0.021 0.30 7.44 000458
7.46 4.11 0.022 0.40 7.46 000459
7.48 4.2 0.022 0.40 7.48 000460
7.50 4.2 0.022 0.30 7.50 000461
7.52 4.11 0.023 0.30 7.52 000462
7.54 3.99 0.023 0.40 7.54 000463
7.56 3.88 0.024 0.30 7.56 000464
7.58 3.56 0.025 0.30 7.58 000465
7.60 3.49 0.03 0.40 7.60 000465
7.62 3.77 0.033 0.30 7.62 000466
7.64 3.92 0.032 0.30 7.64 000467
7.66 4.03 0.031 0.30 7.66 000468
7.68 4.2 0.034 0.40 7.68 000469
7.70 4.18 0.033 0.30 7.70 000470
7.72 4.09 0.032 0.40 7.72 000471
7.74 3.96 0.032 0.30 7.74 000472
7.76 3.72 0.032 0.30 7.76 000473
7.78 3.52 0.032 0.30 7.78 000473
7.80 3.46 0.031 0.30 7.80 000474
7.82 3.44 0.032 0.30 7.82 000475
7.84 3.47 0.031 0.30 7.84 000476
7.86 3.69 0.031 0.30 7.86 000477
7.88 3.86 0.03 0.30 7.88 000478
7.90 3.96 0.029 0.30 7.90 000479
7.92 4.06 0.027 0.30 7.92 000480
7.94 4.15 0.026 0.30 7.94 000481
7.96 4.3 0.025 0.30 7.96 000481
7.98 4.47 0.023 0.30 7.98 000482
8.00 4.71 0.022 0.30 8.00 000483
8.02 4.87 0.022 0.30 8.02 000484
8.04 5.08 0.022 0.30 8.04 000485
8.06 5.2 0.022 0.30 8.06 000486
8.08 5.24 0.022 0.30 8.08 000487
8.10 5.26 0.024 0.30 8.10 000488
8.12 5.36 0.025 0.30 8.12 000489
8.14 5.45 0.027 0.30 8.14 000489
8.16 5.49 0.028 0.30 8.16 000490
8.18 5.49 0.028 0.30 8.18 000491
8.20 5.5 0.029 0.30 8.20 000492
8.22 5.49 0.032 0.30 8.22 000493
8.24 5.46 0.035 0.30 8.24 000494
8.26 5.43 0.036 0.30 8.26 000495
8.28 5.39 0.035 0.30 8.28 000496
8.30 5.38 0.033 0.30 8.30 000496
8.32 5.35 0.0295 0.30 8.32 000505
8.34 5.31 0.026 0.30 8.34 000506
8.36 5.41 0.026 0.30 8.36 000507
8.38 5.54 0.026 0.30 8.38 000508
8.40 5.8 0.024 0.30 8.40 000509
8.42 6.08 0.023 0.30 8.42 000510
8.44 6.43 0.022 0.30 8.44 000511
8.46 6.75 0.021 0.30 8.46 000512
8.48 6.97 0.022 0.30 8.48 000513
8.50 7.27 0.023 0.30 8.50 000514
8.52 7.48 0.025 0.20 8.52 000515
8.54 7.7 0.027 0.30 8.54 000515
8.56 7.83 0.028 0.20 8.56 000516
8.58 7.95 0.03 0.20 8.58 000517
8.60 8.06 0.033 0.20 8.60 000518
8.62 8.12 0.035 0.20 8.62 000519
8.64 8.19 0.037 0.20 8.64 000520
8.66 8.24 0.039 0.20 8.66 000521
8.68 8.27 0.039 0.20 8.68 000522
8.70 8.28 0.04 0.20 8.70 000523
8.72 8.28 0.04 0.20 8.72 000523
8.74 8.25 0.04 0.20 8.74 000524
8.76 8.16 0.04 0.20 8.76 000525
8.78 8.12 0.04 0.20 8.78 000526
8.80 8.04 0.038 0.20 8.80 000527
8.82 8.04 0.036 0.10 8.82 000528
8.84 8.05 0.033 0.10 8.84 000529
8.86 7.97 0.031 0.20 8.86 000530
8.88 7.8 0.031 0.10 8.88 000531
8.90 7.52 0.033 0.10 8.90 000531
8.92 7.29 0.035 0.10 8.92 000532
8.94 7.11 0.038 0.10 8.94 000533
8.96 6.86 0.041 0.10 8.96 000534
8.98 6.67 0.043 0.10 8.98 000535
9.00 6.46 0.043 0.10 9.00 000536
9.02 6.34 0.043 0.10 9.02 000537
9.04 6.18 0.043 0.10 9.04 000538
9.06 6.08 0.044 0.10 9.06 000539
9.08 6.01 0.044 0.10 9.08 000539
9.10 5.92 0.043 0.10 9.10 000540
9.12 5.83 0.042 0.10 9.12 000541
9.14 5.71 0.042 0.10 9.14 000542
9.16 5.65 0.041 0.10 9.16 000543
9.18 5.53 0.041 0.10 9.18 000544
9.20 5.45 0.04 0.10 9.20 000545
9.22 5.4 0.039 0.10 9.22 000546
9.24 5.38 0.038 0.10 9.24 000546
9.26 5.42 0.036 0.10 9.26 000547
9.28 5.34 0.0345 0.10 9.28 000556
9.30 5.26 0.033 0.10 9.30 000557
9.32 5.13 0.035 0.10 9.32 000558
9.34 4.88 0.0365 0.10 9.34 000564
9.36 4.62 0.038 0.10 9.36 000565
9.38 4.39 0.038 0.10 9.38 000566
9.40 4.21 0.039 0.10 9.40 000567
9.42 4.18 0.042 0.10 9.42 000567
9.44 4.57 0.044 0.10 9.44 000568
9.46 5 0.045 0.10 9.46 000569
9.48 5.41 0.043 0.10 9.48 000570
9.50 5.59 0.04 0.10 9.50 000571
9.52 5.64 0.038 0.10 9.52 000572
9.54 5.66 0.037 0.10 9.54 000573
9.56 5.66 0.036 0.10 9.56 000574
9.58 5.69 0.035 0.10 9.58 000575
9.60 5.73 0.033 0.10 9.60 000575
9.62 5.76 0.032 0.10 9.62 000576
9.64 5.81 0.03 0.10 9.64 000577
9.66 5.82 0.03 0.10 9.66 000578
9.68 5.84 0.03 0.10 9.68 000579
9.70 5.85 0.031 0.10 9.70 000580
9.72 5.84 0.032 0.10 9.72 000581
9.74 5.81 0.032 0.10 9.74 000582
9.76 5.79 0.033 0.10 9.76 000583
9.78 5.74 0.032 0.10 9.78 000583
9.80 5.68 0.033 0.10 9.80 000584
9.82 5.58 0.034 0.10 9.82 000585
9.84 5.47 0.035 0.10 9.84 000586
9.86 5.34 0.035 0.10 9.86 000587
9.88 5.36 0.035 0.10 9.88 000588
9.90 5.37 0.036 0.10 9.90 000589
9.92 5.27 0.036 0.10 9.92 000590
9.94 5.14 0.036 0.10 9.94 000590
9.96 4.96 0.036 0.10 9.96 000591
9.98 4.69 0.036 0.10 9.98 000592
10.00 4.48 0.034 0.10 10.00 000593
10.02 4.16 0.032 0.10 10.02 000594
10.04 4.05 0.033 0.10 10.04 000595
10.06 4.04 0.038 0.10 10.06 000596
10.08 4.3 0.044 0.10 10.08 000597
10.10 4.55 0.043 0.10 10.10 000598
10.12 4.63 0.041 0.10 10.12 000598
10.14 4.64 0.039 0.10 10.14 000599
10.16 4.68 0.036 0.10 10.16 000600
10.18 4.71 0.034 0.10 10.18 000601
10.20 4.74 0.031 0.10 10.20 000602
10.22 4.73 0.029 0.10 10.22 000603
10.24 4.71 0.025 0.10 10.24 000612
10.26 4.69 0.021 0.10 10.26 000613
10.28 4.72 0.022 0.10 10.28 000614
10.30 4.68 0.025 0.10 10.30 000614
10.32 4.61 0.026 0.10 10.32 000615
10.34 4.46 0.026 0.10 10.34 000616
10.36 4.32 0.027 0.10 10.36 000617
10.38 4.07 0.027 0.10 10.38 000618
10.40 3.73 0.028 0.10 10.40 000619
10.42 3.54 0.031 0.10 10.42 000620
10.44 3.47 0.036 0.10 10.44 000621
10.46 3.76 0.037 0.10 10.46 000622
10.48 4.09 0.036 0.10 10.48 000622
10.50 4.23 0.033 0.10 10.50 000623
10.52 4.43 0.031 0.10 10.52 000624
10.54 4.54 0.029 0.10 10.54 000625
10.56 4.61 0.027 0.10 10.56 000626
10.58 4.65 0.026 0.10 10.58 000627
10.60 4.7 0.025 0.10 10.60 000628
10.62 4.76 0.024 0.10 10.62 000629
10.64 4.78 0.023 0.10 10.64 000629
10.66 4.79 0.023 0.10 10.66 000630
10.68 4.79 0.025 0.10 10.68 000631
10.70 4.78 0.027 0.10 10.70 000632
10.72 4.76 0.028 -0.10 10.72 000633
10.74 4.73 0.028 0.10 10.74 000634
10.76 4.71 0.028 0.10 10.76 000635
10.78 4.68 0.027 0.10 10.78 000636
10.80 4.67 0.027 0.10 10.80 000637
10.82 4.65 0.026 0.10 10.82 000637
10.84 4.63 0.026 0.10 10.84 000638
10.86 4.61 0.026 0.10 10.86 000639
10.88 4.59 0.026 0.10 10.88 000640
10.90 4.53 0.026 0.10 10.90 000641
10.92 4.43 0.026 0.10 10.92 000642
10.94 4.33 0.027 0.10 10.94 000643
10.96 4.22 0.028 0.10 10.96 000644
10.98 4.07 0.027 0.10 10.98 000644
11.00 4.05 0.025 0.10 11.00 000645
11.02 3.89 0.021 0.10 11.02 000646
11.04 3.81 0.019 0.10 11.04 000647
11.06 3.75 0.024 0.10 11.06 000648
11.08 3.68 0.026 -0.10 11.08 000649
11.10 3.61 0.0295 0.10 11.10 000650
11.12 3.48 0.033 0.10 11.12 000651
11.14 3.35 0.0355 0.10 11.14 000651
11.16 3.32 0.038 0.10 11.16 000652
11.18 3.43 0.04 0.10 11.18 000653
11.20 3.58 0.042 0.10 11.20 000654
11.22 3.76 0.041 -0.10 11.22 000663
11.24 3.94 0.042 0.10 11.24 000664
11.26 4.12 0.043 -0.10 11.26 000665
11.28 4.38 0.044 -0.10 11.28 000666
11.30 4.64 0.043 0.10 11.30 000667
11.32 4.79 0.041 -0.10 11.32 000668
